# scan = 90
# date = 4/30/2024
# time = 11:25:32 AM
# proposal = 32124
# experiment = Investigation of Spin Waves and Magnetic Interactions in NiTiO3
# experiment_number = 418
# command = scan h 0 k 0 l 1.7 e 0.5 0.9 0.1 preset mcu 10
# builtin_command = scan h 0 k 0 l 1.7 e 0.5 0.9 0.1 preset mcu 10
# users = Armando Di Biase, John Schneeloch, Despina Louca, Rathnayaka Mudiyanselage Dilan Srimal Rathnayaka
# local_contact = Tao Hong
# scan_title = alignment on cooling
# monochromator = PG002
# analyzer = Pg002
# sense = -+-
# collimation = 48-40-40-120
# samplename = Single crystal
# sampletype = crystal
# samplemosaic = 30.000000
# latticeconstants = 5.013468,5.013468,13.803923,90.000000,90.000000,120.000000
# ubmatrix = -0.199159,-0.197149,-0.008262,0.022749,0.022749,-0.071970,0.113426,-0.116885,-0.000072
# mode = 0
# plane_normal = -0.008727,-0.000000,0.999962
# ubconf = UB30Apr2024_100100AM.ini
# preset_type = normal 
# preset_channel = mcu
# preset_value = 10.000000
# def_x = e
# def_y = detector
# col_headers = 
#   Pt.          h          k          l          e       time   detector    monitor        mcu focal_length         m1         m2       marc     mtrans     mfocus         s1         s2        sgl        sgu        bbb        bbl        bbr        bbt        bab        bal        bar        bat        stl        stu         a1         a2     afocus        qm1        qm2        qm3        qm4        qm5        qm6        qm7        qm8        xm1        xm2        xm3        xm4        xm5        xm6        xm7        xm8          q         ei         ef        vti     sample       temp
      1     0.0000     0.0000     1.7000     0.5000      9.333      1.000  22001.000     10.000    93.6841   144.1616   -71.6767     0.4200    -1.0000    29.2520   -63.6100    28.5698     0.5000     0.0000     0.0000     0.0000     0.0000     0.0000    20.0000     5.0000     5.0000    16.0000    -3.0000    -2.0000   142.0306   -75.9388     0.0000     0.0000     0.0000     0.0000     0.0000     0.0000     0.0000     0.0000     0.0000     0.0000     0.0000     0.0000     0.0000     0.0000     0.0000     0.0000     0.0000     0.7738     5.3000     4.8000     1.4986     1.4947     1.000
      2     0.0000     0.0000     1.7000     0.6000      9.467      2.000  22001.000     10.000    92.8037   144.5457   -70.9087     0.4200    -1.0000    29.4480   -62.6225    28.3714     0.5000     0.0000     0.0000     0.0000     0.0000     0.0000    20.0000     5.0000     5.0000    16.0000    -3.0000    -2.0000   142.0306   -75.9388     0.0000     0.0000     0.0000     0.0000     0.0000     0.0000     0.0000     0.0000     0.0000     0.0000     0.0000     0.0000     0.0000     0.0000     0.0000     0.0000     0.0000     0.7738     5.4000     4.8000     1.4986     1.4946     1.000
      3     0.0000     0.0000     1.7000     0.7000      9.399     12.000  22001.000     10.000    91.9572   144.9174   -70.1652     0.4200    -1.0000    29.6400   -61.6450    28.1663     0.5000     0.0000     0.0000     0.0000     0.0000     0.0000    20.0000     5.0000     5.0000    16.0000    -3.0000    -2.0000   142.0306   -75.9388     0.0000     0.0000     0.0000     0.0000     0.0000     0.0000     0.0000     0.0000     0.0000     0.0000     0.0000     0.0000     0.0000     0.0000     0.0000     0.0000     0.0000     0.7738     5.5000     4.8000     1.4985     1.4824     1.000
      4    -0.0000    -0.0000     1.7000     0.8000      9.359     15.000  22001.000     10.000    91.1432   145.2776   -69.4449     0.4200    -1.0000    29.8280   -60.6775    27.9547     0.5000     0.0000     0.0000     0.0000     0.0000     0.0000    20.0000     5.0000     5.0000    16.0000    -3.0000    -2.0000   142.0306   -75.9388     0.0000     0.0000     0.0000     0.0000     0.0000     0.0000     0.0000     0.0000     0.0000     0.0000     0.0000     0.0000     0.0000     0.0000     0.0000     0.0000     0.0000     0.7738     5.6000     4.8000     1.4985     1.4856     1.000
      5    -0.0000    -0.0000     1.7000     0.9000      8.987     21.000  22001.000     10.000    90.3266   145.6266   -68.7467     0.4200    -1.0000    30.0200   -59.7175    27.7368     0.5000     0.0000     0.0000     0.0000     0.0000     0.0000    20.0000     5.0000     5.0000    16.0000    -3.0000    -2.0000   142.0306   -75.9388     0.0000     0.0000     0.0000     0.0000     0.0000     0.0000     0.0000     0.0000     0.0000     0.0000     0.0000     0.0000     0.0000     0.0000     0.0000     0.0000     0.0000     0.7738     5.7000     4.8000     1.4984     1.4815     1.000
# Sum of Counts = 51
# Center of Mass = 0.803922+/-0.159802
# Full Width Half-Maximum = 0.197874+/-0.156243
# 11:28:58 AM  4/30/2024   scan completed.
