# scan = 502
# date = 5/3/2024
# time = 11:18:38 AM
# proposal = 32124
# experiment = Investigation of Spin Waves and Magnetic Interactions in NiTiO3
# experiment_number = 418
# command = scan h 1 k 0 l 0 e 2.9 0.1 0.1 preset mcu 60
# builtin_command = scan h 1 k 0 l 0 e 2.9 0.1 0.1 preset mcu 60
# users = Armando Di Biase, John Schneeloch, Despina Louca, Rathnayaka Mudiyanselage Dilan Srimal Rathnayaka
# local_contact = Tao Hong
# scan_title = slits
# monochromator = PG002
# analyzer = Pg002
# sense = -+-
# collimation = 48-40-40-120
# samplename = Single crystal
# sampletype = crystal
# samplemosaic = 30.000000
# latticeconstants = 5.027293,5.027293,13.803923,90.000000,90.000000,120.000000
# ubmatrix = -0.142605,-0.075642,0.056767,-0.179972,-0.092589,-0.045001,0.005468,-0.196116,-0.000650
# mode = 0
# plane_normal = 0.021815,0.013086,0.999676
# ubconf = UB03May2024_95238AM.ini
# preset_type = normal 
# preset_channel = mcu
# preset_value = 60.000000
# def_x = e
# def_y = detector
# col_headers = 
#   Pt.          h          k          l          e       time   detector    monitor        mcu focal_length         m1         m2       marc     mtrans     mfocus         s1         s2        sgl        sgu        bbb        bbl        bbr        bbt        bab        bal        bar        bat        stl        stu         a1         a2     afocus        qm1        qm2        qm3        qm4        qm5        qm6        qm7        qm8        xm1        xm2        xm3        xm4        xm5        xm6        xm7        xm8          q         ei         ef        vti     sample       temp
      1     1.0000    -0.0000    -0.0001     2.9000     56.057      2.000 132001.000     60.000    85.2506   147.8042   -64.3915     0.4200    -1.0000    31.2960    -8.2550    53.8462    -1.2500     0.7500     0.0000     0.0000     0.0000     0.0000    15.0000     5.0000     9.0000    22.0000    -4.0000    -3.0000   133.9046   -92.1908     0.0000     0.0000     0.0000     0.0000     0.0000     0.0000     0.0000     0.0000     0.0000     0.0000     0.0000     0.0000     0.0000     0.0000     0.0000     0.0000     0.0000     1.4432     6.4000     3.5000     1.4893     1.4621     1.000
      2     1.0000     0.0000     0.0000     2.8000      0.000      0.000      0.000     60.000    85.9166   147.5186   -64.9628     0.4200    -1.0000    31.1200    -8.5850    54.2697    -1.2500     0.7500     0.0000     0.0000     0.0000     0.0000    15.0000     5.0000     9.0000    22.0000    -4.0000    -3.0000   133.9046   -92.1908     0.0000     0.0000     0.0000     0.0000     0.0000     0.0000     0.0000     0.0000     0.0000     0.0000     0.0000     0.0000     0.0000     0.0000     0.0000     0.0000     0.0000     1.4432     6.3000     3.5000     1.4893     1.4621     1.000
# Sum of Counts = 2
# Center of Mass = 2.900000+/-2.900000
# Full Width Half-Maximum = 0.000000+/-NaN
# 11:20:00 AM  5/3/2024   scan stopped!!
