# scan = 86
# date = 4/30/2024
# time = 11:10:58 AM
# proposal = 32124
# experiment = Investigation of Spin Waves and Magnetic Interactions in NiTiO3
# experiment_number = 418
# command = scan h 0 k 0 l 1.51 e -0.2 0.2 0.1
# builtin_command = scan h 0 k 0 l 1.51 e -0.2 0.2 0.1
# users = Armando Di Biase, John Schneeloch, Despina Louca, Rathnayaka Mudiyanselage Dilan Srimal Rathnayaka
# local_contact = Tao Hong
# scan_title = alignment on cooling
# monochromator = PG002
# analyzer = Pg002
# sense = -+-
# collimation = 48-40-40-120
# samplename = Single crystal
# sampletype = crystal
# samplemosaic = 30.000000
# latticeconstants = 5.013468,5.013468,13.803923,90.000000,90.000000,120.000000
# ubmatrix = -0.199159,-0.197149,-0.008262,0.022749,0.022749,-0.071970,0.113426,-0.116885,-0.000072
# mode = 0
# plane_normal = -0.008727,-0.000000,0.999962
# ubconf = UB30Apr2024_100100AM.ini
# preset_type = normal 
# preset_channel = time
# preset_value = 1.000000
# def_x = e
# def_y = detector
# col_headers = 
#   Pt.          h          k          l          e       time   detector    monitor        mcu focal_length         m1         m2       marc     mtrans     mfocus         s1         s2        sgl        sgu        bbb        bbl        bbr        bbt        bab        bal        bar        bat        stl        stu         a1         a2     afocus        qm1        qm2        qm3        qm4        qm5        qm6        qm7        qm8        xm1        xm2        xm3        xm4        xm5        xm6        xm7        xm8          q         ei         ef        vti     sample       temp
      1     0.0000     0.0000     1.5100    -0.2000      1.000     22.000   2532.000      1.151   100.5558   141.0625   -77.8750     0.4200    -1.0000    27.8400   -72.8750    26.3541     0.5000     0.0000     0.0000     0.0000     0.0000     0.0000    20.0000     5.0000     5.0000    16.0000    -3.0000    -2.0000   142.0306   -75.9388     0.0000     0.0000     0.0000     0.0000     0.0000     0.0000     0.0000     0.0000     0.0000     0.0000     0.0000     0.0000     0.0000     0.0000     0.0000     0.0000     0.0000     0.6873     4.6000     4.8000     1.4987     1.5019     1.000
      2    -0.0000    -0.0000     1.5100    -0.1000      1.000   9397.000   2540.000      1.155    99.4809   141.5559   -76.8882     0.4200    -1.0000    28.0480   -71.6300    26.2321     0.5000     0.0000     0.0000     0.0000     0.0000     0.0000    20.0000     5.0000     5.0000    16.0000    -3.0000    -2.0000   142.0306   -75.9388     0.0000     0.0000     0.0000     0.0000     0.0000     0.0000     0.0000     0.0000     0.0000     0.0000     0.0000     0.0000     0.0000     0.0000     0.0000     0.0000     0.0000     0.6873     4.7000     4.8000     1.4989     1.4885     1.000
      3     0.0000     0.0000     1.5100     0.0000      1.000  63942.000   2526.000      1.148    98.4288   142.0306   -75.9387     0.4200    -1.0000    28.2560   -70.4000    26.0991     0.5000     0.0000     0.0000     0.0000     0.0000     0.0000    20.0000     5.0000     5.0000    16.0000    -3.0000    -2.0000   142.0306   -75.9388     0.0000     0.0000     0.0000     0.0000     0.0000     0.0000     0.0000     0.0000     0.0000     0.0000     0.0000     0.0000     0.0000     0.0000     0.0000     0.0000     0.0000     0.6873     4.8000     4.8000     1.4988     1.4919     1.000
      4    -0.0000    -0.0000     1.5100     0.1000      1.000   6587.000   2498.000      1.135    97.4378   142.4878   -75.0243     0.4200    -1.0000    28.4560   -69.1925    25.9556     0.5000     0.0000     0.0000     0.0000     0.0000     0.0000    20.0000     5.0000     5.0000    16.0000    -3.0000    -2.0000   142.0306   -75.9388     0.0000     0.0000     0.0000     0.0000     0.0000     0.0000     0.0000     0.0000     0.0000     0.0000     0.0000     0.0000     0.0000     0.0000     0.0000     0.0000     0.0000     0.6873     4.9000     4.8000     1.4990     1.4920     1.000
      5    -0.0000    -0.0000     1.5100     0.2000      1.000     22.000   2413.000      1.097    96.4474   142.9286   -74.1428     0.4200    -1.0000    28.6600   -68.0000    25.8021     0.5000     0.0000     0.0000     0.0000     0.0000     0.0000    20.0000     5.0000     5.0000    16.0000    -3.0000    -2.0000   142.0306   -75.9388     0.0000     0.0000     0.0000     0.0000     0.0000     0.0000     0.0000     0.0000     0.0000     0.0000     0.0000     0.0000     0.0000     0.0000     0.0000     0.0000     0.0000     0.6873     5.0000     4.8000     1.4989     1.4860     1.000
# Sum of Counts = 79970
# Center of Mass = -0.003514+/-0.000159
# Full Width Half-Maximum = 0.089631+/-0.000404
# 11:12:45 AM  4/30/2024   scan completed.
